# Run timestamp = 09:23:14 22 October 2019        
#  FNS 5 Mins Ni                          
# Time after irradiation (years)
#          Activity (Bq/k
# index    0
#   time         value        uncert
  0.00000E+00  1.90968E+08  2.29614E+07
  1.10908E-06  1.64740E+08  1.78530E+07
  1.58440E-06  1.57138E+08  1.60559E+07
  2.05973E-06  1.50395E+08  1.44590E+07
  2.53505E-06  1.44396E+08  1.30419E+07
  3.01037E-06  1.39045E+08  1.17860E+07
  3.83426E-06  1.31073E+08  9.94349E+06
  4.97503E-06  1.22245E+08  7.97594E+06
  6.11580E-06  1.15374E+08  6.54382E+06
  7.73189E-06  1.08165E+08  5.19003E+06
  9.82331E-06  1.01778E+08  4.21217E+06
  1.19147E-05  9.75225E+07  3.72009E+06
  1.49885E-05  9.35153E+07  3.37455E+06
  1.89178E-05  9.04221E+07  3.14826E+06
  2.29105E-05  8.83610E+07  2.98858E+06
  2.88045E-05  8.61718E+07  2.80276E+06
  3.65997E-05  8.39694E+07  2.61500E+06
  4.43316E-05  8.22003E+07  2.47685E+06
  5.21269E-05  8.06983E+07  2.37298E+06
  6.55627E-05  7.85860E+07  2.24980E+06
  8.47656E-05  7.62696E+07  2.14276E+06
  1.03969E-04  7.44666E+07  2.07341E+06



# index    1
# half-life   value        name
  1.1370E-05  3.8827E+06  ^{61}Fe
  4.0958E-03  4.3506E+06  ^{57}Ni
  1.8823E-04  4.7411E+06  ^{61}Co
  2.6447E-05  1.5956E+07  ^{62m}Co
  2.9280E-06  8.4472E+07  ^{62}Co
  1.0381E-03  6.9538E+07  ^{58m}Co



#  FNS 5 Mins Ni                          
# Time after irradiation (years)
#          Dose Rate (Sv/
# index    2
#   time         value        uncert
  0.00000E+00  4.11004E-02  1.02525E-02
  1.10908E-06  3.19913E-02  7.88939E-03
  1.58440E-06  2.88455E-02  7.05187E-03
  2.05973E-06  2.60366E-02  6.30344E-03
  2.53505E-06  2.35281E-02  5.63466E-03
  3.01037E-06  2.12876E-02  5.03704E-03
  3.83426E-06  1.79553E-02  4.14784E-03
  4.97503E-06  1.42946E-02  3.17067E-03
  6.11580E-06  1.14996E-02  2.42465E-03
  7.73189E-06  8.63450E-03  1.65979E-03
  9.82331E-06  6.23250E-03  1.01920E-03
  1.19147E-05  4.76695E-03  6.29431E-04
  1.49885E-05  3.58165E-03  3.17206E-04
  1.89178E-05  2.90828E-03  1.48040E-04
  2.29105E-05  2.63605E-03  9.16780E-05
  2.88045E-05  2.49941E-03  7.46143E-05
  3.65997E-05  2.45282E-03  7.19968E-05
  4.43316E-05  2.43749E-03  7.14853E-05
  5.21269E-05  2.42780E-03  7.12053E-05
  6.55627E-05  2.41471E-03  7.08505E-05
  8.47656E-05  2.39946E-03  7.04488E-05
  1.03969E-04  2.38670E-03  7.01042E-05



# index    3
# half-life   value        name
  1.8823E-04  5.3072E-02  ^{61}Co
  1.9398E-01  8.9842E-02  ^{58}Co
  4.0958E-03  2.2596E+00  ^{57}Ni
  2.9280E-06  3.8370E+01  ^{62}Co



#  FNS 5 Mins Ni                          
# Time after irradiation (years)
#       Heat Output (kW/k
# index    4
#   time         value        uncert
  0.00000E+00  5.94748E-08  1.17660E-08
  1.10908E-06  4.62590E-08  9.13013E-09
  1.58440E-06  4.24559E-08  8.20098E-09
  2.05973E-06  3.90654E-08  7.37407E-09
  2.53505E-06  3.60374E-08  6.63883E-09
  3.01037E-06  3.33285E-08  5.98571E-09
  3.83426E-06  2.92827E-08  5.02357E-09
  4.97503E-06  2.47938E-08  3.98734E-09
  6.11580E-06  2.13034E-08  3.22209E-09
  7.73189E-06  1.76368E-08  2.48045E-09
  9.82331E-06  1.44028E-08  1.91951E-09
  1.19147E-05  1.22637E-08  1.61812E-09
  1.49885E-05  1.02740E-08  1.38808E-09
  1.89178E-05  8.77286E-09  1.22162E-09
  2.29105E-05  7.80361E-09  1.09521E-09
  2.88045E-05  6.81266E-09  9.38700E-10
  3.65997E-05  5.86151E-09  7.67405E-10
  4.43316E-05  5.13602E-09  6.29327E-10
  5.21269E-05  4.55377E-09  5.16201E-10
  6.55627E-05  3.80380E-09  3.69275E-10
  8.47656E-05  3.10633E-09  2.34687E-10
  1.03969E-04  2.67990E-09  1.57603E-10



# index    5
# half-life   value        name
  1.9398E-01  6.0960E-11  ^{58}Co
  1.0381E-03  2.7506E-10  ^{58m}Co
  1.8823E-04  4.2790E-10  ^{61}Co
  4.0958E-03  1.4620E-09  ^{57}Ni
  1.1370E-05  1.6495E-09  ^{61}Fe
  2.6447E-05  9.0038E-09  ^{62m}Co
  2.9280E-06  4.3403E-08  ^{62}Co



#  FNS 5 Mins Ni                          
# Time after irradiation (years)
#    Ingestion Dose (Sv/k
# index    6
#   time         value        uncert
  0.00000E+00  4.40240E-01  1.15110E-01
  1.10908E-06  3.39438E-01  8.85768E-02
  1.58440E-06  3.03924E-01  7.91730E-02
  2.05973E-06  2.72251E-01  7.07693E-02
  2.53505E-06  2.43991E-01  6.32599E-02
  3.01037E-06  2.18767E-01  5.65494E-02
  3.83426E-06  1.81277E-01  4.65645E-02
  4.97503E-06  1.40118E-01  3.55911E-02
  6.11580E-06  1.08691E-01  2.72123E-02
  7.73189E-06  7.64985E-02  1.86194E-02
  9.82331E-06  4.95006E-02  1.14167E-02
  1.19147E-05  3.30187E-02  7.02382E-03
  1.49885E-05  1.96745E-02  3.47462E-03
  1.89178E-05  1.20734E-02  1.46633E-03
  2.29105E-05  8.98142E-03  6.67911E-04
  2.88045E-05  7.40388E-03  2.96422E-04
  3.65997E-05  6.83722E-03  1.99163E-04
  4.43316E-05  6.63468E-03  1.76786E-04
  5.21269E-05  6.50541E-03  1.65816E-04
  6.55627E-05  6.34152E-03  1.54681E-04
  8.47656E-05  6.17408E-03  1.46023E-04
  1.03969E-04  6.05518E-03  1.41198E-04



# index    7
# half-life   value        name
  7.4415E-01  8.5388E-05  ^{57}Co
  1.9398E-01  2.7895E-04  ^{58}Co
  1.8823E-04  3.5084E-04  ^{61}Co
  2.6447E-05  7.4992E-04  ^{62m}Co
  1.0381E-03  1.6689E-03  ^{58m}Co
  4.0958E-03  3.7851E-03  ^{57}Ni
  2.9280E-06  4.3081E-01  ^{62}Co



#  FNS 5 Mins Ni                          
# Time after irradiation (years)
#   Inhalation Dose (Sv/k
# index    8
#   time         value        uncert
  0.00000E+00  3.62285E-01  9.47967E-02
  1.10908E-06  2.79274E-01  7.29455E-02
  1.58440E-06  2.50030E-01  6.52012E-02
  2.05973E-06  2.23949E-01  5.82805E-02
  2.53505E-06  2.00679E-01  5.20962E-02
  3.01037E-06  1.79910E-01  4.65699E-02
  3.83426E-06  1.49041E-01  3.83470E-02
  4.97503E-06  1.15153E-01  2.93100E-02
  6.11580E-06  8.92798E-02  2.24098E-02
  7.73189E-06  6.27793E-02  1.53332E-02
  9.82331E-06  4.05591E-02  9.40131E-03
  1.19147E-05  2.69987E-02  5.78324E-03
  1.49885E-05  1.60273E-02  2.85945E-03
  1.89178E-05  9.78886E-03  1.20328E-03
  2.29105E-05  7.26234E-03  5.41455E-04
  2.88045E-05  5.98956E-03  2.26546E-04
  3.65997E-05  5.55315E-03  1.40315E-04
  4.43316E-05  5.41198E-03  1.21276E-04
  5.21269E-05  5.32772E-03  1.12575E-04
  6.55627E-05  5.22427E-03  1.04036E-04
  8.47656E-05  5.12077E-03  9.75264E-05
  1.03969E-04  5.04905E-03  9.40136E-05



# index    9
# half-life   value        name
  5.2710E+00  1.5965E-05  ^{60}Co
  2.6447E-05  7.4992E-04  ^{62m}Co
  1.8823E-04  3.5084E-04  ^{61}Co
  7.4415E-01  8.5388E-05  ^{57}Co
  1.9398E-01  2.7895E-04  ^{58}Co
  1.0381E-03  1.6689E-03  ^{58m}Co
  4.0958E-03  3.7851E-03  ^{57}Ni
  2.9280E-06  4.3081E-01  ^{62}Co



