# Run timestamp = 09:21:15 22 October 2019        
#  FNS 5 Mins Ni                          
# Time after irradiation (years)
#          Activity (Bq/k
# index    0
#   time         value        uncert
  0.00000E+00  7.60524E+08  1.31182E+08
  1.10908E-06  7.12066E+08  1.25247E+08
  1.58440E-06  6.96052E+08  1.22911E+08
  2.05973E-06  6.80919E+08  1.20669E+08
  2.53505E-06  6.66587E+08  1.18508E+08
  3.01037E-06  6.52959E+08  1.16419E+08
  3.83426E-06  6.30914E+08  1.12946E+08
  4.97503E-06  6.03112E+08  1.08394E+08
  6.11580E-06  5.77925E+08  1.04091E+08
  7.73189E-06  5.45816E+08  9.83497E+07
  9.82331E-06  5.09088E+08  9.14434E+07
  1.19147E-05  4.76509E+08  8.50529E+07
  1.49885E-05  4.34307E+08  7.64898E+07
  1.89178E-05  3.87829E+08  6.68163E+07
  2.29105E-05  3.47274E+08  5.82697E+07
  2.88045E-05  2.97130E+08  4.76698E+07
  3.65997E-05  2.44842E+08  3.66755E+07
  4.43316E-05  2.05148E+08  2.84459E+07
  5.21269E-05  1.74461E+08  2.22284E+07
  6.55627E-05  1.37378E+08  1.50959E+07
  8.47656E-05  1.06483E+08  1.00032E+07
  1.03969E-04  9.00424E+07  8.08731E+06



# index    1
# half-life   value        name
  1.8823E-04  4.0503E+06  ^{61}Co
  4.0954E-03  4.1455E+06  ^{57}Ni
  2.6447E-05  1.4922E+07  ^{62m}Co
  2.8519E-06  7.9358E+07  ^{62}Co
  1.0153E-03  7.0612E+07  ^{58m}Co
  1.9906E-05  5.7676E+08  ^{60m}Co



#  FNS 5 Mins Ni                          
# Time after irradiation (years)
#          Dose Rate (Sv/
# index    2
#   time         value        uncert
  0.00000E+00  5.18459E-02  1.25517E-02
  1.10908E-06  4.25452E-02  9.80982E-03
  1.58440E-06  3.93652E-02  8.85709E-03
  2.05973E-06  3.65145E-02  8.01695E-03
  2.53505E-06  3.39591E-02  7.27798E-03
  3.01037E-06  3.16670E-02  6.62959E-03
  3.83426E-06  2.82358E-02  5.69137E-03
  4.97503E-06  2.44173E-02  4.71164E-03
  6.11580E-06  2.14449E-02  4.01638E-03
  7.73189E-06  1.82982E-02  3.37025E-03
  9.82331E-06  1.54960E-02  2.89020E-03
  1.19147E-05  1.36057E-02  2.61238E-03
  1.49885E-05  1.17825E-02  2.35194E-03
  1.89178E-05  1.03101E-02  2.10811E-03
  2.29105E-05  9.27847E-03  1.89923E-03
  2.88045E-05  8.14266E-03  1.63275E-03
  3.65997E-05  6.99343E-03  1.34033E-03
  4.43316E-05  6.09593E-03  1.10581E-03
  5.21269E-05  5.36959E-03  9.15317E-04
  6.55627E-05  4.43098E-03  6.72416E-04
  8.47656E-05  3.56253E-03  4.61063E-04
  1.03969E-04  3.04105E-03  3.53187E-04



# index    3
# half-life   value        name
  1.8823E-04  4.5339E-02  ^{61}Co
  1.9400E-01  8.9080E-02  ^{58}Co
  1.9906E-05  7.3380E-01  ^{60m}Co
  1.1370E-05  9.1818E-01  ^{61}Fe
  4.0954E-03  2.1531E+00  ^{57}Ni
  2.6447E-05  1.1367E+01  ^{62m}Co
  2.8519E-06  3.6148E+01  ^{62}Co



#  FNS 5 Mins Ni                          
# Time after irradiation (years)
#       Heat Output (kW/k
# index    4
#   time         value        uncert
  0.00000E+00  6.29205E-08  1.41618E-08
  1.10908E-06  4.86846E-08  1.08990E-08
  1.58440E-06  4.50255E-08  9.78924E-09
  2.05973E-06  4.17448E-08  8.80644E-09
  2.53505E-06  3.88032E-08  7.93773E-09
  3.01037E-06  3.61576E-08  7.17121E-09
  3.83426E-06  3.22051E-08  6.05246E-09
  4.97503E-06  2.77978E-08  4.86671E-09
  6.11580E-06  2.43577E-08  4.00976E-09
  7.73189E-06  2.07019E-08  3.20062E-09
  9.82331E-06  1.74262E-08  2.60245E-09
  1.19147E-05  1.51979E-08  2.27560E-09
  1.49885E-05  1.30250E-08  2.00188E-09
  1.89178E-05  1.12458E-08  1.77331E-09
  2.29105E-05  9.98782E-09  1.58700E-09
  2.88045E-05  8.60226E-09  1.35356E-09
  3.65997E-05  7.21476E-09  1.10030E-09
  4.43316E-05  6.14903E-09  8.99043E-10
  5.21269E-05  5.30126E-09  7.36648E-10
  6.55627E-05  4.22957E-09  5.30502E-10
  8.47656E-05  3.26762E-09  3.50474E-10
  1.03969E-04  2.70658E-09  2.56597E-10



# index    5
# half-life   value        name
  1.9400E-01  6.0497E-11  ^{58}Co
  1.0153E-03  2.7250E-10  ^{58m}Co
  1.8823E-04  3.6556E-10  ^{61}Co
  1.1370E-05  9.6325E-10  ^{61}Fe
  4.0954E-03  1.3932E-09  ^{57}Ni
  1.9906E-05  5.7732E-09  ^{60m}Co
  2.6447E-05  8.8681E-09  ^{62m}Co
  2.8519E-06  4.1194E-08  ^{62}Co



#  FNS 5 Mins Ni                          
# Time after irradiation (years)
#    Ingestion Dose (Sv/k
# index    6
#   time         value        uncert
  0.00000E+00  4.12762E-01  1.35154E-01
  1.10908E-06  3.16991E-01  1.03277E-01
  1.58440E-06  2.83280E-01  9.20376E-02
  2.05973E-06  2.53233E-01  8.20189E-02
  2.53505E-06  2.26470E-01  7.30943E-02
  3.01037E-06  2.02617E-01  6.51466E-02
  3.83426E-06  1.67302E-01  5.33680E-02
  4.97503E-06  1.28715E-01  4.05018E-02
  6.11580E-06  9.94553E-02  3.07499E-02
  7.73189E-06  6.96822E-02  2.08341E-02
  9.82331E-06  4.49802E-02  1.26194E-02
  1.19147E-05  3.00749E-02  7.67717E-03
  1.49885E-05  1.81721E-02  3.75967E-03
  1.89178E-05  1.14832E-02  1.62039E-03
  2.29105E-05  8.78827E-03  8.51385E-04
  2.88045E-05  7.39539E-03  5.77202E-04
  3.65997E-05  6.84331E-03  5.26008E-04
  4.43316E-05  6.60306E-03  5.13921E-04
  5.21269E-05  6.43703E-03  5.07567E-04
  6.55627E-05  6.22564E-03  5.00934E-04
  8.47656E-05  6.02073E-03  4.95562E-04
  1.03969E-04  5.88451E-03  4.92124E-04



# index    7
# half-life   value        name
  7.4415E-01  9.2748E-05  ^{57}Co
  1.9400E-01  2.7651E-04  ^{58}Co
  1.8823E-04  2.9972E-04  ^{61}Co
  2.6447E-05  7.0136E-04  ^{62m}Co
  1.9906E-05  9.8049E-04  ^{60m}Co
  1.0153E-03  1.6947E-03  ^{58m}Co
  4.0954E-03  3.6066E-03  ^{57}Ni
  2.8519E-06  4.0473E-01  ^{62}Co



#  FNS 5 Mins Ni                          
# Time after irradiation (years)
#   Inhalation Dose (Sv/k
# index    8
#   time         value        uncert
  0.00000E+00  3.39661E-01  1.11303E-01
  1.10908E-06  2.60799E-01  8.50512E-02
  1.58440E-06  2.33042E-01  7.57951E-02
  2.05973E-06  2.08302E-01  6.75444E-02
  2.53505E-06  1.86265E-01  6.01946E-02
  3.01037E-06  1.66626E-01  5.36494E-02
  3.83426E-06  1.37551E-01  4.39492E-02
  4.97503E-06  1.05783E-01  3.33532E-02
  6.11580E-06  8.16962E-02  2.53219E-02
  7.73189E-06  5.71902E-02  1.71552E-02
  9.82331E-06  3.68634E-02  1.03888E-02
  1.19147E-05  2.46038E-02  6.31649E-03
  1.49885E-05  1.48226E-02  3.08447E-03
  1.89178E-05  9.33891E-03  1.30779E-03
  2.29105E-05  7.14252E-03  6.50290E-04
  2.88045E-05  6.02555E-03  3.99051E-04
  3.65997E-05  5.60490E-03  3.50585E-04
  4.43316E-05  5.43538E-03  3.40300E-04
  5.21269E-05  5.32282E-03  3.35364E-04
  6.55627E-05  5.18240E-03  3.30519E-04
  8.47656E-05  5.04947E-03  3.26925E-04
  1.03969E-04  4.96397E-03  3.24865E-04



# index    9
# half-life   value        name
  5.2709E+00  7.8241E-06  ^{60}Co
  1.8823E-04  2.9972E-04  ^{61}Co
  2.6447E-05  7.0136E-04  ^{62m}Co
  7.4415E-01  9.2748E-05  ^{57}Co
  1.9906E-05  9.8049E-04  ^{60m}Co
  1.9400E-01  2.7651E-04  ^{58}Co
  1.0153E-03  1.6947E-03  ^{58m}Co
  4.0954E-03  3.6066E-03  ^{57}Ni
  2.8519E-06  4.0473E-01  ^{62}Co



